#opvdm
#title Refractive index
#type xy
#x_mul 1e9
#y_mul 1.000000
#x_label Wavelength
#y_label Refractive index 
#x_units nm
#y_units au
#logscale_x 0
#logscale_y 0
#section_one Materials
#section_two Refractive index
3.00000000E-007	2.12362
3.01000000E-007	2.12033
3.02000000E-007	2.11767
3.03000000E-007	2.11562
3.04000000E-007	2.11318
3.05000000E-007	2.10953
3.06000000E-007	2.10714
3.07000000E-007	2.10461
3.08000000E-007	2.10176
3.09000000E-007	2.09711
3.10000000E-007	2.09318
3.11000000E-007	2.08971
3.12000000E-007	2.08393
3.13000000E-007	2.07938
3.14000000E-007	2.0758
3.15000000E-007	2.07253
3.16000000E-007	2.07029
3.17000000E-007	2.06896
3.18000000E-007	2.0659
3.19000000E-007	2.06288
3.20000000E-007	2.05994
3.21000000E-007	2.05595
3.22000000E-007	2.05258
3.23000000E-007	2.05126
3.24000000E-007	2.05033
3.25000000E-007	2.04965
3.26000000E-007	2.04989
3.27000000E-007	2.05072
3.28000000E-007	2.05235
3.29000000E-007	2.05517
3.30000000E-007	2.05862
3.31000000E-007	2.06456
3.32000000E-007	2.07135
3.33000000E-007	2.07931
3.34000000E-007	2.08903
3.35000000E-007	2.09944
3.36000000E-007	2.11005
3.37000000E-007	2.12102
3.38000000E-007	2.13301
3.39000000E-007	2.14485
3.40000000E-007	2.15654
3.41000000E-007	2.16762
3.42000000E-007	2.17848
3.43000000E-007	2.18876
3.44000000E-007	2.19879
3.45000000E-007	2.20737
3.46000000E-007	2.21576
3.47000000E-007	2.22372
3.48000000E-007	2.23041
3.49000000E-007	2.23556
3.50000000E-007	2.24018
3.51000000E-007	2.24442
3.52000000E-007	2.24749
3.53000000E-007	2.25002
3.54000000E-007	2.25198
3.55000000E-007	2.25378
3.56000000E-007	2.25441
3.57000000E-007	2.25483
3.58000000E-007	2.25427
3.59000000E-007	2.25359
3.60000000E-007	2.25204
3.61000000E-007	2.25042
3.62000000E-007	2.24858
3.63000000E-007	2.24673
3.64000000E-007	2.24467
3.65000000E-007	2.2426
3.66000000E-007	2.24048
3.67000000E-007	2.23835
3.68000000E-007	2.23656
3.69000000E-007	2.23485
3.70000000E-007	2.23296
3.71000000E-007	2.231
3.72000000E-007	2.22906
3.73000000E-007	2.22713
3.74000000E-007	2.22489
3.75000000E-007	2.22226
3.76000000E-007	2.21959
3.77000000E-007	2.21684
3.78000000E-007	2.21405
3.79000000E-007	2.2109
3.80000000E-007	2.20776
3.81000000E-007	2.20557
3.82000000E-007	2.20348
3.83000000E-007	2.20142
3.84000000E-007	2.19936
3.85000000E-007	2.1968
3.86000000E-007	2.19347
3.87000000E-007	2.19023
3.88000000E-007	2.18771
3.89000000E-007	2.18519
3.90000000E-007	2.18283
3.91000000E-007	2.1805
3.92000000E-007	2.17847
3.93000000E-007	2.1768
3.94000000E-007	2.17509
3.95000000E-007	2.17282
3.96000000E-007	2.17054
3.97000000E-007	2.16847
3.98000000E-007	2.16651
3.99000000E-007	2.16454
4.00000000E-007	2.16258
4.01000000E-007	2.16062
4.02000000E-007	2.15797
4.03000000E-007	2.15509
4.04000000E-007	2.15239
4.05000000E-007	2.15018
4.06000000E-007	2.14796
4.07000000E-007	2.14564
4.08000000E-007	2.14328
4.09000000E-007	2.14097
4.10000000E-007	2.13887
4.11000000E-007	2.13678
4.12000000E-007	2.13528
4.13000000E-007	2.13419
4.14000000E-007	2.1331
4.15000000E-007	2.13188
4.16000000E-007	2.13065
4.17000000E-007	2.12942
4.18000000E-007	2.12821
4.19000000E-007	2.12699
4.20000000E-007	2.1258
4.21000000E-007	2.12462
4.22000000E-007	2.12344
4.23000000E-007	2.12227
4.24000000E-007	2.12111
4.25000000E-007	2.11994
4.26000000E-007	2.11879
4.27000000E-007	2.11764
4.28000000E-007	2.1165
4.29000000E-007	2.11536
4.30000000E-007	2.11422
4.31000000E-007	2.11336
4.32000000E-007	2.11277
4.33000000E-007	2.11219
4.34000000E-007	2.11193
4.35000000E-007	2.11187
4.36000000E-007	2.11181
4.37000000E-007	2.11174
4.38000000E-007	2.11166
4.39000000E-007	2.11159
4.40000000E-007	2.11151
4.41000000E-007	2.11144
4.42000000E-007	2.11136
4.43000000E-007	2.11129
4.44000000E-007	2.11122
4.45000000E-007	2.11115
4.46000000E-007	2.11042
4.47000000E-007	2.10948
4.48000000E-007	2.10854
4.49000000E-007	2.1081
4.50000000E-007	2.1079
4.51000000E-007	2.1077
4.52000000E-007	2.10757
4.53000000E-007	2.1075
4.54000000E-007	2.10744
4.55000000E-007	2.10722
4.56000000E-007	2.10678
4.57000000E-007	2.10634
4.58000000E-007	2.10594
4.59000000E-007	2.1057
4.60000000E-007	2.10546
4.61000000E-007	2.10522
4.62000000E-007	2.10474
4.63000000E-007	2.10425
4.64000000E-007	2.10376
4.65000000E-007	2.10324
4.66000000E-007	2.1027
4.67000000E-007	2.10217
4.68000000E-007	2.10164
4.69000000E-007	2.10111
4.70000000E-007	2.10058
4.71000000E-007	2.10006
4.72000000E-007	2.09995
4.73000000E-007	2.09988
4.74000000E-007	2.09982
4.75000000E-007	2.09958
4.76000000E-007	2.09913
4.77000000E-007	2.09868
4.78000000E-007	2.09823
4.79000000E-007	2.09764
4.80000000E-007	2.09705
4.81000000E-007	2.09646
4.82000000E-007	2.09609
4.83000000E-007	2.09602
4.84000000E-007	2.09595
4.85000000E-007	2.09588
4.86000000E-007	2.09551
4.87000000E-007	2.09507
4.88000000E-007	2.09463
4.89000000E-007	2.09418
4.90000000E-007	2.09363
4.91000000E-007	2.09309
4.92000000E-007	2.09255
4.93000000E-007	2.09203
4.94000000E-007	2.09156
4.95000000E-007	2.09108
4.96000000E-007	2.0906
4.97000000E-007	2.09016
4.98000000E-007	2.08974
4.99000000E-007	2.08931
5.00000000E-007	2.08889
5.01000000E-007	2.08839
5.02000000E-007	2.08789
5.03000000E-007	2.08739
5.04000000E-007	2.08689
5.05000000E-007	2.08643
5.06000000E-007	2.08598
5.07000000E-007	2.08553
5.08000000E-007	2.08508
5.09000000E-007	2.08464
5.10000000E-007	2.0842
5.11000000E-007	2.08376
5.12000000E-007	2.08329
5.13000000E-007	2.08226
5.14000000E-007	2.08123
5.15000000E-007	2.0802
5.16000000E-007	2.07918
5.17000000E-007	2.07834
5.18000000E-007	2.07751
5.19000000E-007	2.07667
5.20000000E-007	2.07584
5.21000000E-007	2.07493
5.22000000E-007	2.07401
5.23000000E-007	2.0731
5.24000000E-007	2.07218
5.25000000E-007	2.07111
5.26000000E-007	2.06995
5.27000000E-007	2.0688
5.28000000E-007	2.06765
5.29000000E-007	2.06656
5.30000000E-007	2.06556
5.31000000E-007	2.06457
5.32000000E-007	2.06358
5.33000000E-007	2.0626
5.34000000E-007	2.06173
5.35000000E-007	2.06086
5.36000000E-007	2.06
5.37000000E-007	2.05913
5.38000000E-007	2.05827
5.39000000E-007	2.05742
5.40000000E-007	2.05656
5.41000000E-007	2.05571
5.42000000E-007	2.05484
5.43000000E-007	2.05389
5.44000000E-007	2.05294
5.45000000E-007	2.05198
5.46000000E-007	2.05103
5.47000000E-007	2.05022
5.48000000E-007	2.0495
5.49000000E-007	2.04879
5.50000000E-007	2.04807
5.51000000E-007	2.04736
5.52000000E-007	2.04643
5.53000000E-007	2.0455
5.54000000E-007	2.04456
5.55000000E-007	2.04363
5.56000000E-007	2.04275
5.57000000E-007	2.04208
5.58000000E-007	2.0414
5.59000000E-007	2.04073
5.60000000E-007	2.04005
5.61000000E-007	2.03933
5.62000000E-007	2.03854
5.63000000E-007	2.03776
5.64000000E-007	2.03697
5.65000000E-007	2.03619
5.66000000E-007	2.03541
5.67000000E-007	2.03464
5.68000000E-007	2.03386
5.69000000E-007	2.03309
5.70000000E-007	2.03232
5.71000000E-007	2.03155
5.72000000E-007	2.0308
5.73000000E-007	2.03004
5.74000000E-007	2.02928
5.75000000E-007	2.02852
5.76000000E-007	2.02777
5.77000000E-007	2.02702
5.78000000E-007	2.02628
5.79000000E-007	2.02553
5.80000000E-007	2.02479
5.81000000E-007	2.0241
5.82000000E-007	2.0235
5.83000000E-007	2.02291
5.84000000E-007	2.02231
5.85000000E-007	2.02171
5.86000000E-007	2.02111
5.87000000E-007	2.0205
5.88000000E-007	2.01988
5.89000000E-007	2.01927
5.90000000E-007	2.01866
5.91000000E-007	2.01804
5.92000000E-007	2.01738
5.93000000E-007	2.01671
5.94000000E-007	2.01603
5.95000000E-007	2.01536
5.96000000E-007	2.01469
5.97000000E-007	2.01402
5.98000000E-007	2.01336
5.99000000E-007	2.0127
6.00000000E-007	2.01204
6.01000000E-007	2.01138
6.02000000E-007	2.01072
6.03000000E-007	2.01024
6.04000000E-007	2.00979
6.05000000E-007	2.00934
6.06000000E-007	2.00889
6.07000000E-007	2.00844
6.08000000E-007	2.00795
6.09000000E-007	2.00734
6.10000000E-007	2.00672
6.11000000E-007	2.0061
6.12000000E-007	2.00549
6.13000000E-007	2.00487
6.14000000E-007	2.0043
6.15000000E-007	2.00378
6.16000000E-007	2.00326
6.17000000E-007	2.00274
6.18000000E-007	2.00221
6.19000000E-007	2.00169
6.20000000E-007	2.00118
6.21000000E-007	2.00067
6.22000000E-007	2.00016
6.23000000E-007	1.99965
6.24000000E-007	1.99914
6.25000000E-007	1.99863
6.26000000E-007	1.99807
6.27000000E-007	1.99749
6.28000000E-007	1.9969
6.29000000E-007	1.99631
6.30000000E-007	1.99572
6.31000000E-007	1.99513
6.32000000E-007	1.99465
6.33000000E-007	1.99424
6.34000000E-007	1.99383
6.35000000E-007	1.99343
6.36000000E-007	1.99302
6.37000000E-007	1.99261
6.38000000E-007	1.99222
6.39000000E-007	1.99187
6.40000000E-007	1.99152
6.41000000E-007	1.99117
6.42000000E-007	1.99081
6.43000000E-007	1.99046
6.44000000E-007	1.9901
6.45000000E-007	1.9897
6.46000000E-007	1.9893
6.47000000E-007	1.9889
6.48000000E-007	1.9885
6.49000000E-007	1.9881
6.50000000E-007	1.9877
6.51000000E-007	1.98713
6.52000000E-007	1.98646
6.53000000E-007	1.98578
6.54000000E-007	1.9851
6.55000000E-007	1.98443
6.56000000E-007	1.98375
6.57000000E-007	1.98309
6.58000000E-007	1.98287
6.59000000E-007	1.98265
6.60000000E-007	1.98243
6.61000000E-007	1.98221
6.62000000E-007	1.98199
6.63000000E-007	1.98177
6.64000000E-007	1.98143
6.65000000E-007	1.98083
6.66000000E-007	1.98022
6.67000000E-007	1.97962
6.68000000E-007	1.97902
6.69000000E-007	1.97841
6.70000000E-007	1.97781
6.71000000E-007	1.97719
6.72000000E-007	1.97655
6.73000000E-007	1.97591
6.74000000E-007	1.97527
6.75000000E-007	1.97463
6.76000000E-007	1.97399
6.77000000E-007	1.97335
6.78000000E-007	1.97272
6.79000000E-007	1.97209
6.80000000E-007	1.97147
6.81000000E-007	1.97084
6.82000000E-007	1.97021
6.83000000E-007	1.96958
6.84000000E-007	1.96896
6.85000000E-007	1.96843
6.86000000E-007	1.9681
6.87000000E-007	1.96778
6.88000000E-007	1.96746
6.89000000E-007	1.96713
6.90000000E-007	1.96681
6.91000000E-007	1.96649
6.92000000E-007	1.96617
6.93000000E-007	1.96586
6.94000000E-007	1.96556
6.95000000E-007	1.96526
6.96000000E-007	1.96496
6.97000000E-007	1.96466
6.98000000E-007	1.96436
6.99000000E-007	1.96406
7.00000000E-007	1.96388
7.01000000E-007	1.9638
7.02000000E-007	1.96371
7.03000000E-007	1.96363
7.04000000E-007	1.96354
7.05000000E-007	1.96346
7.06000000E-007	1.96338
7.07000000E-007	1.96329
7.08000000E-007	1.96288
7.09000000E-007	1.96245
7.10000000E-007	1.96202
7.11000000E-007	1.96159
7.12000000E-007	1.96116
7.13000000E-007	1.96073
7.14000000E-007	1.9603
7.15000000E-007	1.95992
7.16000000E-007	1.95978
7.17000000E-007	1.95965
7.18000000E-007	1.95951
7.19000000E-007	1.95937
7.20000000E-007	1.95923
7.21000000E-007	1.9591
7.22000000E-007	1.95896
7.23000000E-007	1.95879
7.24000000E-007	1.95851
7.25000000E-007	1.95824
7.26000000E-007	1.95796
7.27000000E-007	1.95768
7.28000000E-007	1.95741
7.29000000E-007	1.95713
7.30000000E-007	1.95685
7.31000000E-007	1.95657
7.32000000E-007	1.95623
7.33000000E-007	1.95589
7.34000000E-007	1.95555
7.35000000E-007	1.95521
7.36000000E-007	1.95487
7.37000000E-007	1.95453
7.38000000E-007	1.95419
7.39000000E-007	1.95385
7.40000000E-007	1.95337
7.41000000E-007	1.95283
7.42000000E-007	1.9523
7.43000000E-007	1.95177
7.44000000E-007	1.95124
7.45000000E-007	1.95071
7.46000000E-007	1.95018
7.47000000E-007	1.94965
7.48000000E-007	1.94917
7.49000000E-007	1.94885
7.50000000E-007	1.94853
7.51000000E-007	1.9482
7.52000000E-007	1.94788
7.53000000E-007	1.94756
7.54000000E-007	1.94724
7.55000000E-007	1.94692
7.56000000E-007	1.9466
7.57000000E-007	1.94635
7.58000000E-007	1.94617
7.59000000E-007	1.94598
7.60000000E-007	1.9458
7.61000000E-007	1.94562
7.62000000E-007	1.94543
7.63000000E-007	1.94525
7.64000000E-007	1.94506
7.65000000E-007	1.94488
7.66000000E-007	1.94461
7.67000000E-007	1.9443
7.68000000E-007	1.94398
7.69000000E-007	1.94366
7.70000000E-007	1.94334
7.71000000E-007	1.94303
7.72000000E-007	1.94271
7.73000000E-007	1.94239
7.74000000E-007	1.94207
7.75000000E-007	1.9418
7.76000000E-007	1.94157
7.77000000E-007	1.94133
7.78000000E-007	1.9411
7.79000000E-007	1.94087
7.80000000E-007	1.94064
7.81000000E-007	1.94041
7.82000000E-007	1.94017
7.83000000E-007	1.93994
7.84000000E-007	1.93971
7.85000000E-007	1.93946
7.86000000E-007	1.93921
7.87000000E-007	1.93896
7.88000000E-007	1.93872
7.89000000E-007	1.93847
7.90000000E-007	1.93822
7.91000000E-007	1.93797
7.92000000E-007	1.93772
7.93000000E-007	1.93747
7.94000000E-007	1.93723
7.95000000E-007	1.937
7.96000000E-007	1.93677
7.97000000E-007	1.93654
7.98000000E-007	1.93631
7.99000000E-007	1.93607
8.00000000E-007	1.93584

